Wavenumber,Intensity
400.6888,96.808575
402.5525,97.690220
404.4162,96.102383
406.2798,94.359329
408.1435,96.338145
410.0072,97.124546
411.8708,97.154316
413.7345,96.691753
415.5982,95.983018
417.4618,96.063928
419.3255,96.780678
421.1892,96.234063
423.0528,95.948842
424.9165,95.534496
426.7802,95.381333
428.6439,95.636541
430.5075,95.939338
432.3712,95.555046
434.2349,95.356446
436.0985,95.102889
437.9622,95.436706
439.8259,95.596595
441.6895,95.520113
443.5532,95.444990
445.4169,95.475485
447.2805,95.603349
449.1442,95.844621
451.0079,95.661056
452.8715,95.311639
454.7352,95.334931
456.5989,95.349202
458.4626,95.351016
460.3262,95.695272
462.1899,95.841594
464.0536,95.635424
465.9172,95.506995
467.7809,95.667877
469.6446,95.603884
471.5082,95.679869
473.3719,95.745383
475.2356,95.723766
477.0992,95.724057
478.9629,95.707015
480.8266,95.717936
482.6902,95.910018
484.5539,95.963021
486.4176,95.972684
488.2813,96.070294
490.1449,96.212855
492.0086,96.049241
493.8723,95.937739
495.7359,96.001441
497.5996,96.052847
499.4633,96.050584
501.3269,96.016498
503.1906,96.176720
505.0543,96.275911
506.9179,96.257457
508.7816,96.266100
510.6453,96.265657
512.5090,96.293613
514.3726,96.285237
516.2363,96.160846
518.1000,96.216219
519.9636,96.338430
521.8273,96.365204
523.6910,96.340516
525.5546,96.272426
527.4183,96.363132
529.2820,96.371563
531.1456,96.358935
533.0093,96.286602
534.8730,96.217105
536.7366,96.275202
538.6003,96.440290
540.4640,96.539222
542.3277,96.541635
544.1913,96.553365
546.0550,96.545033
547.9187,96.516941
549.7823,96.573161
551.6460,96.534981
553.5097,96.570323
555.3733,96.579093
557.2370,96.545755
559.1007,96.492112
560.9643,96.500415
562.8280,96.518713
564.6917,96.513883
566.5554,96.623471
568.4190,96.702749
570.2827,96.595281
572.1464,96.557492
574.0100,96.609967
575.8737,96.580143
577.7374,96.606120
579.6010,96.661217
581.4647,96.641813
583.3284,96.606403
585.1920,96.561093
587.0557,96.560336
588.9194,96.559025
590.7830,96.601957
592.6467,96.631348
594.5104,96.651533
596.3741,96.618185
598.2377,96.573503
600.1014,96.652618
601.9651,96.742025
603.8287,96.720624
605.6924,96.747931
607.5561,96.746449
609.4197,96.718163
611.2834,96.744375
613.1471,96.795029
615.0107,96.827009
616.8744,96.855124
618.7381,96.880730
620.6017,96.857096
622.4654,96.830409
624.3291,96.882628
626.1928,96.907442
628.0564,96.904947
629.9201,96.979203
631.7838,96.997473
633.6474,96.993522
635.5111,96.986915
637.3748,96.964463
639.2384,96.943767
641.1021,96.992294
642.9658,97.063969
644.8294,97.079534
646.6931,97.032402
648.5568,97.033516
650.4205,97.066768
652.2841,97.065293
654.1478,97.045488
656.0115,97.043998
657.8751,97.075945
659.7388,97.072419
661.6025,97.038564
663.4661,97.035613
665.3298,97.082193
667.1935,97.137292
669.0571,97.096027
670.9208,97.084828
672.7845,97.096488
674.6481,97.066506
676.5118,97.064758
678.3755,97.105592
680.2392,97.129285
682.1028,97.094857
683.9665,97.086678
685.8302,97.112296
687.6938,97.131031
689.5575,97.122829
691.4212,97.148553
693.2848,97.165287
695.1485,97.142340
697.0122,97.141892
698.8758,97.161443
700.7395,97.139775
702.6032,97.143102
704.4669,97.147024
706.3305,97.104126
708.1942,97.067290
710.0579,97.039632
711.9215,97.046072
713.7852,97.092755
715.6489,97.121776
717.5125,97.103576
719.3762,97.091191
721.2399,97.127821
723.1035,97.138318
724.9672,97.115462
726.8309,97.092771
728.6945,97.078918
730.5582,97.069599
732.4219,97.050481
734.2856,97.024488
736.1492,97.023725
738.0129,97.050172
739.8766,97.047853
741.7402,97.025559
743.6039,97.016821
745.4676,96.991693
747.3312,96.968257
749.1949,97.000555
751.0586,97.010417
752.9222,97.020299
754.7859,97.052135
756.6496,97.023215
758.5132,96.999216
760.3769,96.991540
762.2406,96.990557
764.1043,97.011509
765.9679,97.003994
767.8316,96.978138
769.6953,96.977019
771.5589,96.957719
773.4226,96.961506
775.2863,96.972576
777.1499,96.943366
779.0136,96.935917
780.8773,96.973802
782.7409,97.006100
784.6046,96.991954
786.4683,96.973152
788.3320,96.952674
790.1956,96.937300
792.0593,96.976272
793.9230,97.005131
795.7866,96.971724
797.6503,96.943975
799.5140,96.971675
801.3776,96.987624
803.2413,96.963737
805.1050,96.973121
806.9686,97.007643
808.8323,97.023130
810.6960,97.034873
812.5596,97.019540
814.4233,97.032510
816.2870,97.067859
818.1507,97.054145
820.0143,97.045735
821.8780,97.076509
823.7417,97.090506
825.6053,97.081110
827.4690,97.076437
829.3327,97.087601
831.1963,97.068338
833.0600,97.040150
834.9237,97.052733
836.7873,97.078943
838.6510,97.085819
840.5147,97.080139
842.3784,97.046744
844.2420,97.022592
846.1057,97.044763
847.9694,97.028553
849.8330,97.025170
851.6967,97.039197
853.5604,97.029710
855.4240,96.993696
857.2877,96.966066
859.1514,96.994875
861.0150,97.005216
862.8787,96.966049
864.7424,96.948688
866.6060,96.965280
868.4697,96.960109
870.3334,96.924362
872.1971,96.894478
874.0607,96.910091
875.9244,96.974110
877.7881,97.012560
879.6517,97.047965
881.5154,97.070966
883.3791,97.057916
885.2427,97.065716
887.1064,97.108377
888.9701,97.184064
890.8337,97.227232
892.6974,97.233261
894.5611,97.219785
896.4247,97.227505
898.2884,97.250810
900.1521,97.279076
902.0158,97.293396
903.8794,97.306139
905.7431,97.339798
907.6068,97.391366
909.4704,97.414128
911.3341,97.413352
913.1978,97.431956
915.0614,97.449733
916.9251,97.459173
918.7888,97.446534
920.6524,97.421054
922.5161,97.438639
924.3798,97.465288
926.2435,97.501299
928.1071,97.517509
929.9708,97.515415
931.8345,97.527754
933.6981,97.539673
935.5618,97.556175
937.4255,97.564230
939.2891,97.550361
941.1528,97.527763
943.0165,97.506657
944.8801,97.516553
946.7438,97.535642
948.6075,97.550703
950.4711,97.556081
952.3348,97.550601
954.1985,97.516276
956.0622,97.511002
957.9258,97.509397
959.7895,97.495549
961.6532,97.482214
963.5168,97.480632
965.3805,97.484710
967.2442,97.472106
969.1078,97.464481
970.9715,97.463896
972.8352,97.476285
974.6988,97.479308
976.5625,97.445869
978.4262,97.433152
980.2899,97.456966
982.1535,97.446762
984.0172,97.428400
985.8809,97.408248
987.7445,97.389147
989.6082,97.380194
991.4719,97.386783
993.3355,97.398685
995.1992,97.392298
997.0629,97.380841
998.9265,97.357765
1000.7902,97.339146
1002.6539,97.332971
1004.5175,97.314122
1006.3812,97.279974
1008.2449,97.246222
1010.1086,97.221416
1011.9722,97.216492
1013.8359,97.206780
1015.6996,97.192387
1017.5632,97.213750
1019.4269,97.238636
1021.2906,97.220450
1023.1542,97.214058
1025.0179,97.245068
1026.8816,97.298834
1028.7452,97.344913
1030.6089,97.359718
1032.4726,97.373218
1034.3362,97.394280
1036.1999,97.423741
1038.0636,97.452348
1039.9273,97.477271
1041.7909,97.496518
1043.6546,97.497900
1045.5183,97.512590
1047.3819,97.534035
1049.2456,97.541569
1051.1093,97.551888
1052.9729,97.550698
1054.8366,97.543704
1056.7003,97.571028
1058.5639,97.587756
1060.4276,97.592590
1062.2913,97.596404
1064.1550,97.572947
1066.0186,97.572793
1067.8823,97.599212
1069.7460,97.601529
1071.6096,97.596445
1073.4733,97.618317
1075.3370,97.630220
1077.2006,97.604685
1079.0643,97.590147
1080.9280,97.584319
1082.7916,97.585129
1084.6553,97.601392
1086.5190,97.612181
1088.3826,97.606400
1090.2463,97.595247
1092.1100,97.596915
1093.9737,97.569015
1095.8373,97.537394
1097.7010,97.532774
1099.5647,97.546019
1101.4283,97.572075
1103.2920,97.580922
1105.1557,97.587193
1107.0193,97.579093
1108.8830,97.560501
1110.7467,97.537033
1112.6103,97.506682
1114.4740,97.512121
1116.3377,97.522108
1118.2014,97.519139
1120.0650,97.497630
1121.9287,97.469727
1123.7924,97.465934
1125.6560,97.487947
1127.5197,97.517222
1129.3834,97.520361
1131.2470,97.497659
1133.1107,97.497269
1134.9744,97.502002
1136.8380,97.493357
1138.7017,97.492337
1140.5654,97.491609
1142.4290,97.478226
1144.2927,97.456914
1146.1564,97.440759
1148.0201,97.432239
1149.8837,97.435454
1151.7474,97.440259
1153.6111,97.438046
1155.4747,97.432327
1157.3384,97.410126
1159.2021,97.395211
1161.0657,97.389122
1162.9294,97.395604
1164.7931,97.403243
1166.6567,97.392642
1168.5204,97.411687
1170.3841,97.423451
1172.2477,97.408727
1174.1114,97.404773
1175.9751,97.414431
1177.8388,97.440567
1179.7024,97.464365
1181.5661,97.468539
1183.4298,97.457031
1185.2934,97.465004
1187.1571,97.472475
1189.0208,97.478422
1190.8844,97.483482
1192.7481,97.479654
1194.6118,97.477629
1196.4754,97.471742
1198.3391,97.469764
1200.2028,97.466727
1202.0665,97.452657
1203.9301,97.455983
1205.7938,97.461382
1207.6575,97.450325
1209.5211,97.445261
1211.3848,97.437632
1213.2485,97.425279
1215.1121,97.419590
1216.9758,97.406131
1218.8395,97.400893
1220.7031,97.403332
1222.5668,97.409823
1224.4305,97.403573
1226.2941,97.384359
1228.1578,97.384433
1230.0215,97.388154
1231.8852,97.376751
1233.7488,97.374758
1235.6125,97.386416
1237.4762,97.396111
1239.3398,97.392296
1241.2035,97.381613
1243.0672,97.367517
1244.9308,97.351243
1246.7945,97.345139
1248.6582,97.339676
1250.5218,97.333039
1252.3855,97.336343
1254.2492,97.332625
1256.1129,97.337254
1257.9765,97.348189
1259.8402,97.328747
1261.7039,97.319151
1263.5675,97.336589
1265.4312,97.333840
1267.2949,97.314207
1269.1585,97.297891
1271.0222,97.311145
1272.8859,97.318346
1274.7495,97.311289
1276.6132,97.300813
1278.4769,97.288778
1280.3405,97.278324
1282.2042,97.268549
1284.0679,97.273180
1285.9316,97.290619
1287.7952,97.291413
1289.6589,97.277769
1291.5226,97.266576
1293.3862,97.261940
1295.2499,97.258061
1297.1136,97.241396
1298.9772,97.230164
1300.8409,97.217385
1302.7046,97.203727
1304.5682,97.209971
1306.4319,97.205742
1308.2956,97.192431
1310.1592,97.193118
1312.0229,97.191690
1313.8866,97.207540
1315.7503,97.207350
1317.6139,97.206307
1319.4776,97.202841
1321.3413,97.188049
1323.2049,97.178927
1325.0686,97.180421
1326.9323,97.172743
1328.7959,97.164331
1330.6596,97.162033
1332.5233,97.159483
1334.3869,97.167271
1336.2506,97.158847
1338.1143,97.147384
1339.9780,97.145196
1341.8416,97.143986
1343.7053,97.151027
1345.5690,97.154839
1347.4326,97.143552
1349.2963,97.153772
1351.1600,97.163725
1353.0236,97.140715
1354.8873,97.127435
1356.7510,97.140178
1358.6146,97.142777
1360.4783,97.129670
1362.3420,97.120057
1364.2056,97.129593
1366.0693,97.140168
1367.9330,97.131352
1369.7967,97.119251
1371.6603,97.116563
1373.5240,97.109788
1375.3877,97.100304
1377.2513,97.101989
1379.1150,97.111368
1380.9787,97.123425
1382.8423,97.136847
1384.7060,97.126968
1386.5697,97.098155
1388.4333,97.111922
1390.2970,97.144544
1392.1607,97.152327
1394.0244,97.134324
1395.8880,97.094355
1397.7517,97.071650
1399.6154,97.076350
1401.4790,97.102588
1403.3427,97.113994
1405.2064,97.106066
1407.0700,97.095617
1408.9337,97.094065
1410.7974,97.110939
1412.6610,97.125122
1414.5247,97.142205
1416.3884,97.130574
1418.2520,97.049843
1420.1157,97.029702
1421.9794,97.093319
1423.8431,97.097243
1425.7067,97.110661
1427.5704,97.115708
1429.4341,97.078435
1431.2977,97.101860
1433.1614,97.143668
1435.0251,97.101728
1436.8887,97.042421
1438.7524,97.065073
1440.6161,97.085340
1442.4797,97.098321
1444.3434,97.102600
1446.2071,97.088475
1448.0707,97.088966
1449.9344,97.107219
1451.7981,97.125169
1453.6618,97.120494
1455.5254,97.057182
1457.3891,96.975182
1459.2528,97.058181
1461.1164,97.119013
1462.9801,97.117425
1464.8438,97.094746
1466.7074,97.130660
1468.5711,97.186687
1470.4348,97.195989
1472.2984,97.141356
1474.1621,97.136490
1476.0258,97.165238
1477.8895,97.185191
1479.7531,97.200289
1481.6168,97.203819
1483.4805,97.229674
1485.3441,97.230236
1487.2078,97.203909
1489.0715,97.163928
1490.9351,97.181310
1492.7988,97.244992
1494.6625,97.228363
1496.5261,97.167664
1498.3898,97.188018
1500.2535,97.229881
1502.1171,97.273476
1503.9808,97.263455
1505.8445,97.119443
1507.7082,97.050832
1509.5718,97.153335
1511.4355,97.207342
1513.2992,97.229389
1515.1628,97.226239
1517.0265,97.198761
1518.8902,97.184555
1520.7538,97.142542
1522.6175,97.150438
1524.4812,97.163042
1526.3448,97.152412
1528.2085,97.195522
1530.0722,97.222550
1531.9359,97.189516
1533.7995,97.188430
1535.6632,97.254423
1537.5269,97.250377
1539.3905,97.139214
1541.2542,97.117650
1543.1179,97.143249
1544.9815,97.151270
1546.8452,97.191694
1548.7089,97.204391
1550.5725,97.213029
1552.4362,97.259523
1554.2999,97.278686
1556.1635,97.254726
1558.0272,97.102843
1559.8909,97.039080
1561.7546,97.198392
1563.6182,97.257884
1565.4819,97.243804
1567.3456,97.222075
1569.2092,97.193939
1571.0729,97.213950
1572.9366,97.239670
1574.8002,97.183801
1576.6639,97.148409
1578.5276,97.204119
1580.3912,97.230663
1582.2549,97.238779
1584.1186,97.247926
1585.9822,97.245331
1587.8459,97.253495
1589.7096,97.249880
1591.5733,97.231040
1593.4369,97.219650
1595.3006,97.227485
1597.1643,97.239108
1599.0279,97.272142
1600.8916,97.288477
1602.7553,97.278781
1604.6189,97.281192
1606.4826,97.254091
1608.3463,97.240870
1610.2099,97.263585
1612.0736,97.283869
1613.9373,97.293404
1615.8010,97.234787
1617.6646,97.227432
1619.5283,97.299120
1621.3920,97.294513
1623.2556,97.248659
1625.1193,97.258626
1626.9830,97.273115
1628.8466,97.292174
1630.7103,97.335767
1632.5740,97.332294
1634.4376,97.219500
1636.3013,97.148541
1638.1650,97.221780
1640.0286,97.265810
1641.8923,97.281631
1643.7560,97.298660
1645.6197,97.273378
1647.4833,97.274782
1649.3470,97.340279
1651.2107,97.251791
1653.0743,97.084519
1654.9380,97.195979
1656.8017,97.285237
1658.6653,97.303520
1660.5290,97.311322
1662.3927,97.308883
1664.2563,97.357339
1666.1200,97.363124
1667.9837,97.311173
1669.8474,97.299658
1671.7110,97.351431
1673.5747,97.369137
1675.4384,97.331767
1677.3020,97.356450
1679.1657,97.368317
1681.0294,97.329033
1682.8930,97.263863
1684.7567,97.251790
1686.6204,97.352356
1688.4840,97.379212
1690.3477,97.401516
1692.2114,97.424731
1694.0750,97.401387
1695.9387,97.401216
1697.8024,97.395229
1699.6661,97.288165
1701.5297,97.308216
1703.3934,97.393104
1705.2571,97.376263
1707.1207,97.383448
1708.9844,97.422026
1710.8481,97.433649
1712.7117,97.412786
1714.5754,97.362399
1716.4391,97.280048
1718.3027,97.278593
1720.1664,97.358582
1722.0301,97.342812
1723.8937,97.317429
1725.7574,97.357516
1727.6211,97.354956
1729.4848,97.341927
1731.3484,97.310621
1733.2121,97.234876
1735.0758,97.256379
1736.9394,97.349051
1738.8031,97.366317
1740.6668,97.364507
1742.5304,97.379744
1744.3941,97.375748
1746.2578,97.375287
1748.1214,97.396163
1749.9851,97.398641
1751.8488,97.407287
1753.7125,97.476435
1755.5761,97.508432
1757.4398,97.460324
1759.3035,97.417825
1761.1671,97.421004
1763.0308,97.465163
1764.8945,97.472124
1766.7581,97.446502
1768.6218,97.435832
1770.4855,97.427138
1772.3491,97.415666
1774.2128,97.423460
1776.0765,97.431712
1777.9401,97.450515
1779.8038,97.451679
1781.6675,97.438758
1783.5312,97.444680
1785.3948,97.450340
1787.2585,97.478744
1789.1222,97.481677
1790.9858,97.437542
1792.8495,97.420054
1794.7132,97.456527
1796.5768,97.463485
1798.4405,97.439578
1800.3042,97.434176
1802.1678,97.470328
1804.0315,97.501442
1805.8952,97.487202
1807.7589,97.447796
1809.6225,97.435097
1811.4862,97.487087
1813.3499,97.530880
1815.2135,97.563605
1817.0772,97.552018
1818.9409,97.446836
1820.8045,97.428913
1822.6682,97.496286
1824.5319,97.475915
1826.3955,97.484516
1828.2592,97.516982
1830.1229,97.486308
1831.9865,97.492428
1833.8502,97.502983
1835.7139,97.511474
1837.5776,97.531923
1839.4412,97.500280
1841.3049,97.430578
1843.1686,97.365106
1845.0322,97.414187
1846.8959,97.503894
1848.7596,97.494318
1850.6232,97.508089
1852.4869,97.580902
1854.3506,97.551594
1856.2142,97.462792
1858.0779,97.463233
1859.9416,97.464032
1861.8052,97.443047
1863.6689,97.454921
1865.5326,97.456829
1867.3963,97.469864
1869.2599,97.455511
1871.1236,97.512690
1872.9873,97.612550
1874.8509,97.607982
1876.7146,97.574314
1878.5783,97.585465
1880.4419,97.552685
1882.3056,97.479360
1884.1693,97.531939
1886.0329,97.616020
1887.8966,97.549780
1889.7603,97.528109
1891.6240,97.670968
1893.4876,97.686139
1895.3513,97.648307
1897.2150,97.621221
1899.0786,97.560782
1900.9423,97.563929
1902.8060,97.604740
1904.6696,97.666469
1906.5333,97.691334
1908.3970,97.655438
1910.2606,97.610094
1912.1243,97.598468
1913.9880,97.553480
1915.8516,97.541051
1917.7153,97.587435
1919.5790,97.585336
1921.4427,97.617827
1923.3063,97.744338
1925.1700,97.794836
1927.0337,97.772698
1928.8973,97.780367
1930.7610,97.741920
1932.6247,97.723949
1934.4883,97.731521
1936.3520,97.676594
1938.2157,97.601015
1940.0793,97.663690
1941.9430,97.803764
1943.8067,97.748143
1945.6704,97.694306
1947.5340,97.773025
1949.3977,97.834217
1951.2614,97.870569
1953.1250,97.924790
1954.9887,97.899858
1956.8524,97.806566
1958.7160,97.823360
1960.5797,97.955428
1962.4434,97.864199
1964.3070,97.608853
1966.1707,97.737913
1968.0344,97.924024
1969.8980,97.845844
1971.7617,97.783037
1973.6254,97.910732
1975.4891,97.992254
1977.3527,97.715192
1979.2164,97.410217
1981.0801,97.454733
1982.9437,97.548896
1984.8074,97.483132
1986.6711,97.407371
1988.5347,97.388231
1990.3984,97.602715
1992.2621,98.001452
1994.1257,98.076416
1995.9894,97.771455
1997.8531,97.658684
1999.7167,97.966039
2001.5804,97.873218
2003.4441,97.546881
2005.3078,97.873491
2007.1714,98.198772
2009.0351,97.920547
2010.8988,97.619100
2012.7624,97.673432
2014.6261,97.887501
2016.4898,98.007999
2018.3534,98.078586
2020.2171,97.805044
2022.0808,97.591149
2023.9444,97.663720
2025.8081,97.447806
2027.6718,97.396548
2029.5355,97.637696
2031.3991,97.839135
2033.2628,97.819422
2035.1265,97.586916
2036.9901,97.569127
2038.8538,97.625209
2040.7175,97.579196
2042.5811,97.552166
2044.4448,97.376958
2046.3085,97.232443
2048.1721,97.400693
2050.0358,97.596495
2051.8995,97.697499
2053.7631,97.664991
2055.6268,97.477034
2057.4905,97.523921
2059.3542,97.723790
2061.2178,97.696267
2063.0815,97.493494
2064.9452,97.396672
2066.8088,97.443321
2068.6725,97.571072
2070.5362,97.661957
2072.3998,97.569687
2074.2635,97.540317
2076.1272,97.590859
2077.9908,97.444744
2079.8545,97.365256
2081.7182,97.464942
2083.5819,97.477587
2085.4455,97.486641
2087.3092,97.527772
2089.1729,97.540061
2091.0365,97.538821
2092.9002,97.641645
2094.7639,97.792641
2096.6275,97.704007
2098.4912,97.506572
2100.3549,97.497067
2102.2185,97.532306
2104.0822,97.442054
2105.9459,97.410731
2107.8095,97.464616
2109.6732,97.506045
2111.5369,97.486101
2113.4006,97.486736
2115.2642,97.533317
2117.1279,97.644539
2118.9916,97.711439
2120.8552,97.747749
2122.7189,97.889180
2124.5826,97.918658
2126.4462,97.890381
2128.3099,97.849525
2130.1736,97.812427
2132.0372,97.900523
2133.9009,97.897781
2135.7646,97.812388
2137.6282,97.788919
2139.4919,98.116415
2141.3556,98.505154
2143.2193,98.259433
2145.0829,98.036392
2146.9466,97.941353
2148.8103,97.872712
2150.6739,97.985397
2152.5376,98.070960
2154.4013,98.437331
2156.2649,98.588753
2158.1286,98.003815
2159.9923,97.665537
2161.8559,97.693478
2163.7196,97.533738
2165.5833,97.401193
2167.4470,97.252828
2169.3106,97.252345
2171.1743,97.791196
2173.0380,98.211763
2174.9016,98.153469
2176.7653,97.912754
2178.6290,97.846726
2180.4926,98.042743
2182.3563,97.911532
2184.2200,97.828340
2186.0836,98.062815
2187.9473,97.964191
2189.8110,97.551656
2191.6746,97.276572
2193.5383,97.389898
2195.4020,97.638000
2197.2657,97.767606
2199.1293,97.614760
2200.9930,97.365408
2202.8567,97.488480
2204.7203,97.674089
2206.5840,97.690696
2208.4477,97.611144
2210.3113,97.529008
2212.1750,97.708890
2214.0387,97.756750
2215.9023,97.605619
2217.7660,97.814615
2219.6297,97.771243
2221.4934,97.209338
2223.3570,96.989408
2225.2207,97.305205
2227.0844,97.558716
2228.9480,97.517894
2230.8117,97.494287
2232.6754,97.470661
2234.5390,97.398093
2236.4027,97.522433
2238.2664,97.606978
2240.1300,97.568229
2241.9937,97.519545
2243.8574,97.520556
2245.7210,97.431284
2247.5847,97.387505
2249.4484,97.514328
2251.3121,97.394981
2253.1757,97.351541
2255.0394,97.400841
2256.9031,97.417614
2258.7667,97.481958
2260.6304,97.460549
2262.4941,97.408854
2264.3577,97.282944
2266.2214,97.206022
2268.0851,97.177669
2269.9487,97.216462
2271.8124,97.331328
2273.6761,97.301283
2275.5397,97.222980
2277.4034,97.213107
2279.2671,97.313534
2281.1308,97.314170
2282.9944,97.155528
2284.8581,97.044565
2286.7218,97.008401
2288.5854,97.119785
2290.4491,97.224075
