Wavenumber,Intensity
400.6888,93.567793
402.5525,92.750018
404.4162,92.464760
406.2798,90.066852
408.1435,89.795633
410.0072,90.374334
411.8708,89.535664
413.7345,88.884531
415.5982,88.551753
417.4618,87.679080
419.3255,88.544559
421.1892,88.574035
423.0528,88.341066
424.9165,87.892702
426.7802,86.987261
428.6439,86.493456
430.5075,87.092802
432.3712,87.252780
434.2349,87.359133
436.0985,87.287345
437.9622,86.998195
439.8259,86.670276
441.6895,86.828528
443.5532,86.985623
445.4169,87.014777
447.2805,86.641785
449.1442,86.819311
451.0079,86.947639
452.8715,86.929449
454.7352,86.835215
456.5989,86.763839
458.4626,86.777936
460.3262,86.860511
462.1899,86.701053
464.0536,86.745172
465.9172,86.806518
467.7809,86.756964
469.6446,86.929567
471.5082,87.068487
473.3719,86.981588
475.2356,87.044537
477.0992,87.042589
478.9629,87.050934
480.8266,86.989675
482.6902,87.004576
484.5539,87.053549
486.4176,87.256631
488.2813,87.244927
490.1449,87.301384
492.0086,87.429578
493.8723,87.493167
495.7359,87.426702
497.5996,87.493145
499.4633,87.635082
501.3269,87.611875
503.1906,87.477797
505.0543,87.534267
506.9179,87.649099
508.7816,87.667672
510.6453,87.704864
512.5090,87.892135
514.3726,87.929972
516.2363,88.048041
518.1000,88.110655
519.9636,88.168303
521.8273,88.197256
523.6910,88.301887
525.5546,88.381338
527.4183,88.450763
529.2820,88.415644
531.1456,88.465930
533.0093,88.591507
534.8730,88.760095
536.7366,88.884825
538.6003,88.989773
540.4640,89.154194
542.3277,89.274965
544.1913,89.310876
546.0550,89.526744
547.9187,89.801723
549.7823,89.938791
551.6460,89.965305
553.5097,90.110321
555.3733,90.302832
557.2370,90.493174
559.1007,90.527775
560.9643,90.509917
562.8280,90.502291
564.6917,90.548289
566.5554,90.542754
568.4190,90.539194
570.2827,90.575057
572.1464,90.572394
574.0100,90.521974
575.8737,90.467674
577.7374,90.338527
579.6010,90.329340
581.4647,90.330496
583.3284,90.254589
585.1920,90.222317
587.0557,90.224008
588.9194,90.196778
590.7830,90.155341
592.6467,90.092487
594.5104,90.066461
596.3741,89.988387
598.2377,90.008634
600.1014,90.071842
601.9651,90.088555
603.8287,90.125463
605.6924,90.133826
607.5561,90.122229
609.4197,90.155023
611.2834,90.175531
613.1471,90.134420
615.0107,90.036521
616.8744,90.052957
618.7381,90.141811
620.6017,90.156338
622.4654,90.121824
624.3291,90.174187
626.1928,90.244992
628.0564,90.233502
629.9201,90.165654
631.7838,90.185145
633.6474,90.266566
635.5111,90.336485
637.3748,90.345514
639.2384,90.341631
641.1021,90.333813
642.9658,90.374125
644.8294,90.412254
646.6931,90.417699
648.5568,90.399771
650.4205,90.406087
652.2841,90.431940
654.1478,90.489163
656.0115,90.530435
657.8751,90.513058
659.7388,90.495392
661.6025,90.547192
663.4661,90.552089
665.3298,90.550663
667.1935,90.648563
669.0571,90.664806
670.9208,90.634867
672.7845,90.653551
674.6481,90.625002
676.5118,90.675789
678.3755,90.760945
680.2392,90.789424
682.1028,90.745215
683.9665,90.713991
685.8302,90.777593
687.6938,90.837812
689.5575,90.815656
691.4212,90.800651
693.2848,90.856737
695.1485,90.912816
697.0122,90.927339
698.8758,90.910662
700.7395,90.927648
702.6032,90.973740
704.4669,90.982667
706.3305,90.987333
708.1942,91.008321
710.0579,91.043464
711.9215,91.066402
713.7852,91.036299
715.6489,91.048210
717.5125,91.093439
719.3762,91.116462
721.2399,91.172268
723.1035,91.172305
724.9672,91.145620
726.8309,91.151440
728.6945,91.190321
730.5582,91.230320
732.4219,91.266715
734.2856,91.279871
736.1492,91.262596
738.0129,91.274582
739.8766,91.315980
741.7402,91.337564
743.6039,91.371510
745.4676,91.384673
747.3312,91.374901
749.1949,91.355559
751.0586,91.362711
752.9222,91.390220
754.7859,91.408305
756.6496,91.427981
758.5132,91.425787
760.3769,91.428000
762.2406,91.442796
764.1043,91.464282
765.9679,91.487199
767.8316,91.489976
769.6953,91.504230
771.5589,91.532253
773.4226,91.512245
775.2863,91.505682
777.1499,91.570512
779.0136,91.573912
780.8773,91.549184
782.7409,91.554853
784.6046,91.576671
786.4683,91.610731
788.3320,91.630428
790.1956,91.646765
792.0593,91.684575
793.9230,91.715551
795.7866,91.724721
797.6503,91.711933
799.5140,91.685270
801.3776,91.733406
803.2413,91.752900
805.1050,91.732820
806.9686,91.752029
808.8323,91.788901
810.6960,91.816015
812.5596,91.815779
814.4233,91.839522
816.2870,91.862358
818.1507,91.866860
820.0143,91.870545
821.8780,91.878531
823.7417,91.869790
825.6053,91.887643
827.4690,91.919984
829.3327,91.943580
831.1963,91.946593
833.0600,91.941733
834.9237,91.940445
836.7873,91.979830
838.6510,92.020097
840.5147,92.018443
842.3784,92.010674
844.2420,92.049670
846.1057,92.071072
847.9694,92.087608
849.8330,92.114181
851.6967,92.120163
853.5604,92.112344
855.4240,92.116283
857.2877,92.119094
859.1514,92.135181
861.0150,92.121915
862.8787,92.140262
864.7424,92.161600
866.6060,92.173388
868.4697,92.186678
870.3334,92.199850
872.1971,92.223190
874.0607,92.248186
875.9244,92.262230
877.7881,92.288723
879.6517,92.329202
881.5154,92.347032
883.3791,92.339556
885.2427,92.329413
887.1064,92.341130
888.9701,92.363309
890.8337,92.399344
892.6974,92.409238
894.5611,92.383531
896.4247,92.387024
898.2884,92.411931
900.1521,92.428192
902.0158,92.455078
903.8794,92.476358
905.7431,92.483487
907.6068,92.490870
909.4704,92.528865
911.3341,92.531549
913.1978,92.514602
915.0614,92.517112
916.9251,92.529068
918.7888,92.540559
920.6524,92.552618
922.5161,92.573549
924.3798,92.592132
926.2435,92.598739
928.1071,92.623981
929.9708,92.633205
931.8345,92.639011
933.6981,92.641626
935.5618,92.624960
937.4255,92.637262
939.2891,92.667747
941.1528,92.692138
943.0165,92.704529
944.8801,92.711757
946.7438,92.699065
948.6075,92.695993
950.4711,92.702311
952.3348,92.719346
954.1985,92.716417
956.0622,92.725382
957.9258,92.762531
959.7895,92.776419
961.6532,92.790257
963.5168,92.805294
965.3805,92.793049
967.2442,92.795714
969.1078,92.810987
970.9715,92.813613
972.8352,92.826028
974.6988,92.844141
976.5625,92.836552
978.4262,92.826557
980.2899,92.860994
982.1535,92.891139
984.0172,92.896040
985.8809,92.903381
987.7445,92.910400
989.6082,92.912421
991.4719,92.923338
993.3355,92.926862
995.1992,92.930932
997.0629,92.960732
998.9265,92.960971
1000.7902,92.946534
1002.6539,92.948899
1004.5175,92.955529
1006.3812,92.957524
1008.2449,92.983337
1010.1086,93.013633
1011.9722,93.005763
1013.8359,92.984975
1015.6996,92.991687
1017.5632,93.015279
1019.4269,93.028158
1021.2906,93.052594
1023.1542,93.081418
1025.0179,93.100541
1026.8816,93.099481
1028.7452,93.091275
1030.6089,93.098391
1032.4726,93.109999
1034.3362,93.123082
1036.1999,93.122111
1038.0636,93.134811
1039.9273,93.167937
1041.7909,93.181342
1043.6546,93.173577
1045.5183,93.188453
1047.3819,93.202105
1049.2456,93.207414
1051.1093,93.220384
1052.9729,93.231137
1054.8366,93.235426
1056.7003,93.246873
1058.5639,93.280565
1060.4276,93.293060
1062.2913,93.277712
1064.1550,93.269920
1066.0186,93.283035
1067.8823,93.281530
1069.7460,93.259156
1071.6096,93.268105
1073.4733,93.300846
1075.3370,93.330789
1077.2006,93.356868
1079.0643,93.369420
1080.9280,93.366653
1082.7916,93.364387
1084.6553,93.364284
1086.5190,93.408542
1088.3826,93.454463
1090.2463,93.461773
1092.1100,93.468375
1093.9737,93.483343
1095.8373,93.477777
1097.7010,93.491545
1099.5647,93.525822
1101.4283,93.532542
1103.2920,93.522800
1105.1557,93.526703
1107.0193,93.532250
1108.8830,93.562852
1110.7467,93.581801
1112.6103,93.578327
1114.4740,93.569883
1116.3377,93.583269
1118.2014,93.587842
1120.0650,93.599873
1121.9287,93.626101
1123.7924,93.633172
1125.6560,93.637376
1127.5197,93.641145
1129.3834,93.620959
1131.2470,93.613986
1133.1107,93.627435
1134.9744,93.631360
1136.8380,93.635957
1138.7017,93.669354
1140.5654,93.679132
1142.4290,93.662602
1144.2927,93.680732
1146.1564,93.701908
1148.0201,93.712247
1149.8837,93.725515
1151.7474,93.710042
1153.6111,93.688002
1155.4747,93.702414
1157.3384,93.715064
1159.2021,93.719350
1161.0657,93.727253
1162.9294,93.745019
1164.7931,93.758279
1166.6567,93.768025
1168.5204,93.795864
1170.3841,93.796678
1172.2477,93.801359
1174.1114,93.805221
1175.9751,93.794483
1177.8388,93.803173
1179.7024,93.811798
1181.5661,93.811169
1183.4298,93.815379
1185.2934,93.823972
1187.1571,93.820442
1189.0208,93.825517
1190.8844,93.852186
1192.7481,93.871447
1194.6118,93.878420
1196.4754,93.885991
1198.3391,93.886406
1200.2028,93.883640
1202.0665,93.879765
1203.9301,93.888816
1205.7938,93.895965
1207.6575,93.909462
1209.5211,93.913285
1211.3848,93.917739
1213.2485,93.931172
1215.1121,93.933817
1216.9758,93.908452
1218.8395,93.899891
1220.7031,93.929807
1222.5668,93.951976
1224.4305,93.950806
1226.2941,93.937352
1228.1578,93.948241
1230.0215,93.975301
1231.8852,93.973733
1233.7488,93.979792
1235.6125,93.983835
1237.4762,93.993896
1239.3398,94.004701
1241.2035,94.004003
1243.0672,94.011618
1244.9308,94.014634
1246.7945,94.014117
1248.6582,94.023429
1250.5218,94.031140
1252.3855,94.047198
1254.2492,94.049875
1256.1129,94.044449
1257.9765,94.053926
1259.8402,94.068506
1261.7039,94.075285
1263.5675,94.084801
1265.4312,94.099423
1267.2949,94.113155
1269.1585,94.115611
1271.0222,94.108885
1272.8859,94.102624
1274.7495,94.089336
1276.6132,94.097233
1278.4769,94.125246
1280.3405,94.143391
1282.2042,94.146495
1284.0679,94.135106
1285.9316,94.138825
1287.7952,94.145004
1289.6589,94.147645
1291.5226,94.179022
1293.3862,94.190038
1295.2499,94.178228
1297.1136,94.165141
1298.9772,94.166956
1300.8409,94.184065
1302.7046,94.197329
1304.5682,94.189791
1306.4319,94.177956
1308.2956,94.183622
1310.1592,94.196632
1312.0229,94.206451
1313.8866,94.215822
1315.7503,94.226500
1317.6139,94.251297
1319.4776,94.252677
1321.3413,94.233838
1323.2049,94.236453
1325.0686,94.248089
1326.9323,94.267469
1328.7959,94.269348
1330.6596,94.267636
1332.5233,94.280826
1334.3869,94.270504
1336.2506,94.266890
1338.1143,94.298427
1339.9780,94.302770
1341.8416,94.284159
1343.7053,94.302639
1345.5690,94.317328
1347.4326,94.314506
1349.2963,94.307714
1351.1600,94.329128
1353.0236,94.348803
1354.8873,94.360414
1356.7510,94.380642
1358.6146,94.369482
1360.4783,94.370347
1362.3420,94.394604
1364.2056,94.382840
1366.0693,94.390276
1367.9330,94.402401
1369.7967,94.395595
1371.6603,94.424480
1373.5240,94.437964
1375.3877,94.429832
1377.2513,94.441195
1379.1150,94.456770
1380.9787,94.456487
1382.8423,94.462155
1384.7060,94.483360
1386.5697,94.502900
1388.4333,94.470017
1390.2970,94.461033
1392.1607,94.507663
1394.0244,94.538584
1395.8880,94.529368
1397.7517,94.546743
1399.6154,94.520932
1401.4790,94.489688
1403.3427,94.529385
1405.2064,94.534706
1407.0700,94.537573
1408.9337,94.579784
1410.7974,94.594874
1412.6610,94.575337
1414.5247,94.582106
1416.3884,94.626287
1418.2520,94.644072
1420.1157,94.569520
1421.9794,94.587956
1423.8431,94.646249
1425.7067,94.617991
1427.5704,94.635755
1429.4341,94.658354
1431.2977,94.619911
1433.1614,94.634257
1435.0251,94.705081
1436.8887,94.683219
1438.7524,94.604709
1440.6161,94.621937
1442.4797,94.642272
1444.3434,94.671728
1446.2071,94.716425
1448.0707,94.721689
1449.9344,94.681104
1451.7981,94.661124
1453.6618,94.715193
1455.5254,94.829940
1457.3891,94.769072
1459.2528,94.657912
1461.1164,94.703188
1462.9801,94.763261
1464.8438,94.765482
1466.7074,94.718937
1468.5711,94.722750
1470.4348,94.794337
1472.2984,94.846254
1474.1621,94.775673
1476.0258,94.770320
1477.8895,94.788377
1479.7531,94.801878
1481.6168,94.808317
1483.4805,94.806589
1485.3441,94.844519
1487.2078,94.865550
1489.0715,94.859608
1490.9351,94.809376
1492.7988,94.787202
1494.6625,94.873054
1496.5261,94.911452
1498.3898,94.846361
1500.2535,94.807858
1502.1171,94.817560
1503.9808,94.926692
1505.8445,95.058395
1507.7082,94.937819
1509.5718,94.865063
1511.4355,94.879641
1513.2992,94.857232
1515.1628,94.900846
1517.0265,94.909380
1518.8902,94.926888
1520.7538,95.004219
1522.6175,94.935797
1524.4812,94.928940
1526.3448,94.960648
1528.2085,94.919378
1530.0722,94.924301
1531.9359,94.978808
1533.7995,94.966248
1535.6632,94.902251
1537.5269,95.016054
1539.3905,95.156647
1541.2542,95.065075
1543.1179,95.022315
1544.9815,95.028553
1546.8452,94.998853
1548.7089,95.006447
1550.5725,95.011679
1552.4362,95.030523
1554.2999,95.044168
1556.1635,95.092561
1558.0272,95.271187
1559.8909,95.170347
1561.7546,95.029723
1563.6182,95.062950
1565.4819,95.061140
1567.3456,95.066483
1569.2092,95.117778
1571.0729,95.057260
1572.9366,95.093971
1574.8002,95.221736
1576.6639,95.183695
1578.5276,95.095838
1580.3912,95.125955
1582.2549,95.140198
1584.1186,95.138886
1585.9822,95.172371
1587.8459,95.185592
1589.7096,95.195145
1591.5733,95.206707
1593.4369,95.199781
1595.3006,95.177820
1597.1643,95.195443
1599.0279,95.212454
1600.8916,95.203746
1602.7553,95.217776
1604.6189,95.225810
1606.4826,95.243469
1608.3463,95.265472
1610.2099,95.265019
1612.0736,95.256559
1613.9373,95.293282
1615.8010,95.366930
1617.6646,95.279992
1619.5283,95.231488
1621.3920,95.319704
1623.2556,95.364363
1625.1193,95.333555
1626.9830,95.348415
1628.8466,95.342906
1630.7103,95.332546
1632.5740,95.408553
1634.4376,95.469706
1636.3013,95.420192
1638.1650,95.358674
1640.0286,95.350543
1641.8923,95.360843
1643.7560,95.428621
1645.6197,95.476982
1647.4833,95.381814
1649.3470,95.342692
1651.2107,95.535905
1653.0743,95.651792
1654.9380,95.391687
1656.8017,95.342305
1658.6653,95.409714
1660.5290,95.464013
1662.3927,95.501475
1664.2563,95.459872
1666.1200,95.442290
1667.9837,95.507424
1669.8474,95.518086
1671.7110,95.496695
1673.5747,95.567352
1675.4384,95.573534
1677.3020,95.504282
1679.1657,95.514115
1681.0294,95.559707
1682.8930,95.674902
1684.7567,95.630596
1686.6204,95.461905
1688.4840,95.495410
1690.3477,95.530810
1692.2114,95.549156
1694.0750,95.643974
1695.9387,95.683028
1697.8024,95.645989
1699.6661,95.752592
1701.5297,95.608093
1703.3934,95.547098
1705.2571,95.653816
1707.1207,95.631701
1708.9844,95.589618
1710.8481,95.573041
1712.7117,95.583101
1714.5754,95.641879
1716.4391,95.742454
1718.3027,95.723290
1720.1664,95.603847
1722.0301,95.622524
1723.8937,95.664721
1725.7574,95.649811
1727.6211,95.636101
1729.4848,95.616200
1731.3484,95.675888
1733.2121,95.846119
1735.0758,95.804164
1736.9394,95.710052
1738.8031,95.758965
1740.6668,95.741215
1742.5304,95.729712
1744.3941,95.774843
1746.2578,95.797997
1748.1214,95.834828
1749.9851,95.856370
1751.8488,95.812744
1753.7125,95.772066
1755.5761,95.804534
1757.4398,95.819853
1759.3035,95.828148
1761.1671,95.866739
1763.0308,95.826864
1764.8945,95.807828
1766.7581,95.850828
1768.6218,95.886147
1770.4855,95.952483
1772.3491,95.959082
1774.2128,95.871388
1776.0765,95.886978
1777.9401,95.911441
1779.8038,95.894424
1781.6675,95.899256
1783.5312,95.932329
1785.3948,95.930056
1787.2585,95.910690
1789.1222,95.945200
1790.9858,95.988989
1792.8495,95.942297
1794.7132,95.892803
1796.5768,95.939019
1798.4405,96.008892
1800.3042,96.029830
1802.1678,95.996783
1804.0315,95.999207
1805.8952,96.005250
1807.7589,96.006862
1809.6225,96.067371
1811.4862,96.099997
1813.3499,96.068852
1815.2135,96.078529
1817.0772,96.099090
1818.9409,96.121467
1820.8045,96.126273
1822.6682,96.129366
1824.5319,96.132840
1826.3955,96.096809
1828.2592,96.142856
1830.1229,96.153026
1831.9865,96.079982
1833.8502,96.114138
1835.7139,96.149704
1837.5776,96.161248
1839.4412,96.178531
1841.3049,96.266306
1843.1686,96.311051
1845.0322,96.172414
1846.8959,96.149737
1848.7596,96.236052
1850.6232,96.237194
1852.4869,96.207006
1854.3506,96.210142
1856.2142,96.239439
1858.0779,96.246776
1859.9416,96.285424
1861.8052,96.349733
1863.6689,96.300478
1865.5326,96.260281
1867.3963,96.361849
1869.2599,96.401180
1871.1236,96.331830
1872.9873,96.358194
1874.8509,96.378358
1876.7146,96.331180
1878.5783,96.291622
1880.4419,96.247750
1882.3056,96.216512
1884.1693,96.297272
1886.0329,96.395975
1887.8966,96.390722
1889.7603,96.373300
1891.6240,96.454250
1893.4876,96.558023
1895.3513,96.552457
1897.2150,96.494932
1899.0786,96.448762
1900.9423,96.389921
1902.8060,96.412707
1904.6696,96.492119
1906.5333,96.595366
1908.3970,96.646901
1910.2606,96.595315
1912.1243,96.512786
1913.9880,96.499338
1915.8516,96.574417
1917.7153,96.610805
1919.5790,96.593624
1921.4427,96.663097
1923.3063,96.705965
1925.1700,96.668700
1927.0337,96.770852
1928.8973,96.813072
1930.7610,96.678254
1932.6247,96.697457
1934.4883,96.785305
1936.3520,96.753116
1938.2157,96.872621
1940.0793,96.907721
1941.9430,96.783666
1943.8067,96.863816
1945.6704,96.983825
1947.5340,97.038857
1949.3977,96.992420
1951.2614,96.864483
1953.1250,97.009437
1954.9887,97.242086
1956.8524,97.235674
1958.7160,97.177945
1960.5797,97.209063
1962.4434,97.148234
1964.3070,97.002519
1966.1707,97.156794
1968.0344,97.606187
1969.8980,97.726765
1971.7617,97.508283
1973.6254,97.495895
1975.4891,97.425127
1977.3527,97.172998
1979.2164,97.178374
1981.0801,97.177198
1982.9437,96.858224
1984.8074,96.841900
1986.6711,97.036242
1988.5347,96.943224
1990.3984,97.115888
1992.2621,97.391340
1994.1257,97.304885
1995.9894,97.131646
1997.8531,97.028084
1999.7167,97.009318
2001.5804,96.921969
2003.4441,96.994257
2005.3078,97.201968
2007.1714,97.271623
2009.0351,97.276735
2010.8988,97.483942
2012.7624,97.504469
2014.6261,97.413579
2016.4898,97.338853
2018.3534,97.325262
2020.2171,97.631140
2022.0808,97.575836
2023.9444,97.451392
2025.8081,97.629966
2027.6718,97.625057
2029.5355,97.420205
2031.3991,97.262374
2033.2628,97.295942
2035.1265,97.277217
2036.9901,97.257415
2038.8538,97.334142
2040.7175,97.202009
2042.5811,97.030042
2044.4448,97.019531
2046.3085,97.021193
2048.1721,96.867107
2050.0358,96.664390
2051.8995,96.730205
2053.7631,96.971821
2055.6268,96.972223
2057.4905,96.769479
2059.3542,96.509620
2061.2178,96.527287
2063.0815,96.775559
2064.9452,96.754235
2066.8088,96.587705
2068.6725,96.511782
2070.5362,96.608321
2072.3998,96.681583
2074.2635,96.602853
2076.1272,96.536765
2077.9908,96.488108
2079.8545,96.430318
2081.7182,96.544725
2083.5819,96.817738
2085.4455,96.861760
2087.3092,96.713110
2089.1729,96.690984
2091.0365,96.713686
2092.9002,96.826439
2094.7639,96.835577
2096.6275,96.715042
2098.4912,96.790974
2100.3549,96.792291
2102.2185,96.630251
2104.0822,96.683742
2105.9459,96.855344
2107.8095,96.849075
2109.6732,96.750040
2111.5369,96.644493
2113.4006,96.591631
2115.2642,96.634455
2117.1279,96.666962
2118.9916,96.685453
2120.8552,96.839340
2122.7189,97.037945
2124.5826,97.033300
2126.4462,96.856710
2128.3099,96.745088
2130.1736,96.905997
2132.0372,97.186566
2133.9009,97.388233
2135.7646,97.542816
2137.6282,97.577692
2139.4919,97.559171
2141.3556,97.576654
2143.2193,97.594362
2145.0829,97.651706
2146.9466,97.684679
2148.8103,97.533483
2150.6739,97.512081
2152.5376,97.942175
2154.4013,98.236582
2156.2649,98.014066
2158.1286,97.667498
2159.9923,97.227460
2161.8559,96.796915
2163.7196,96.728151
2165.5833,97.094889
2167.4470,97.394541
2169.3106,97.413744
2171.1743,97.514073
2173.0380,97.530227
2174.9016,97.586857
2176.7653,97.635970
2178.6290,97.461383
2180.4926,97.221271
2182.3563,97.080671
2184.2200,97.259992
2186.0836,97.215453
2187.9473,97.114511
2189.8110,97.328182
2191.6746,97.395096
2193.5383,97.366244
2195.4020,97.324656
2197.2657,97.261500
2199.1293,97.059400
2200.9930,96.873610
2202.8567,96.798967
2204.7203,96.822211
2206.5840,97.109986
2208.4477,97.334142
2210.3113,97.132497
2212.1750,96.861237
2214.0387,96.915565
2215.9023,96.876691
2217.7660,96.723365
2219.6297,96.699547
2221.4934,96.699538
2223.3570,96.752294
2225.2207,96.836968
2227.0844,96.700388
2228.9480,96.490242
2230.8117,96.695155
2232.6754,96.845632
2234.5390,96.661557
2236.4027,96.581786
2238.2664,96.654369
2240.1300,96.741137
2241.9937,96.768595
2243.8574,96.698437
2245.7210,96.665737
2247.5847,96.782178
2249.4484,96.811100
2251.3121,96.703446
2253.1757,96.626217
2255.0394,96.613161
2256.9031,96.543990
2258.7667,96.451432
2260.6304,96.493378
2262.4941,96.541127
2264.3577,96.662257
2266.2214,96.729362
2268.0851,96.564636
2269.9487,96.516958
2271.8124,96.643158
2273.6761,96.592821
2275.5397,96.433747
2277.4034,96.405850
2279.2671,96.412092
2281.1308,96.390286
2282.9944,96.325210
2284.8581,96.305615
2286.7218,96.298058
2288.5854,96.308994
2290.4491,96.351864
